# m[Msun] r[Rsun] L[Lsun] T[K] Q[/s] Sdd[mJy kpc2]
        0.20570E-002         2.1196             0.79513E-001         2104.7             0.20798E+008        0.23909E-036        0.14891E-035
        0.21194E-002         2.1145             0.83151E-001         2131.0             0.35829E+008        0.41188E-036        0.24531E-035
        0.21823E-002         2.1115             0.86809E-001         2155.5             0.59311E+008        0.68183E-036        0.38897E-035
        0.22474E-002         2.1182             0.90326E-001         2173.6             0.86397E+008        0.99319E-036        0.54454E-035
        0.23135E-002         2.1299             0.93760E-001         2188.0             0.11688E+009        0.13436E-035        0.70967E-035
        0.23834E-002         2.1473             0.97205E-001         2198.8             0.14782E+009        0.16992E-035        0.86571E-035
        0.24554E-002         2.1641             0.10078              2210.1             0.18843E+009        0.21661E-035        0.10645E-034
        0.25274E-002         2.1847             0.10425              2218.4             0.22655E+009        0.26044E-035        0.12372E-034
        0.26017E-002         2.2077             0.10778              2225.2             0.26520E+009        0.30486E-035        0.14008E-034
        0.26801E-002         2.2267             0.11163              2235.3             0.32912E+009        0.37834E-035        0.16785E-034
        0.27595E-002         2.2483             0.11552              2243.6             0.39600E+009        0.45524E-035        0.19515E-034
        0.28418E-002         2.2673             0.11963              2253.8             0.49195E+009        0.56554E-035        0.23412E-034
        0.29286E-002         2.2881             0.12397              2263.6             0.60740E+009        0.69825E-035        0.27893E-034
        0.30162E-002         2.3110             0.12827              2271.6             0.72418E+009        0.83250E-035        0.32143E-034
        0.31068E-002         2.3352             0.13271              2279.1             0.85561E+009        0.98358E-035        0.36705E-034
        0.32021E-002         2.3548             0.13755              2290.1             0.10754E+010        0.12362E-034        0.44509E-034
        0.32981E-002         2.3826             0.14221              2295.7             0.12273E+010        0.14109E-034        0.49133E-034
        0.33961E-002         2.4038             0.14725              2305.6             0.15103E+010        0.17362E-034        0.58392E-034
        0.34976E-002         2.4256             0.15252              2315.4             0.18580E+010        0.21359E-034        0.69353E-034
        0.36045E-002         2.4512             0.15792              2323.4             0.22100E+010        0.25405E-034        0.79668E-034
        0.37117E-002         2.4750             0.16345              2332.2             0.26633E+010        0.30617E-034        0.92762E-034
        0.38218E-002         2.4982             0.16921              2341.6             0.32372E+010        0.37214E-034        0.10891E-033
        0.39377E-002         2.5220             0.17527              2351.1             0.39471E+010        0.45375E-034        0.12821E-033
        0.40551E-002         2.5520             0.18119              2356.7             0.44926E+010        0.51646E-034        0.14116E-033
        0.41779E-002         2.5758             0.18769              2366.6             0.55081E+010        0.63319E-034        0.16707E-033
        0.43019E-002         2.6013             0.19425              2375.2             0.66035E+010        0.75912E-034        0.19353E-033
        0.44320E-002         2.6283             0.20106              2383.4             0.78528E+010        0.90273E-034        0.22236E-033
        0.45645E-002         2.6562             0.20804              2391.2             0.92627E+010        0.10648E-033        0.25348E-033
        0.47051E-002         2.6871             0.21528              2397.8             0.10715E+011        0.12318E-033        0.28335E-033
        0.48494E-002         2.7113             0.22313              2408.6             0.13300E+011        0.15289E-033        0.33933E-033
        0.49932E-002         2.7404             0.23089              2416.3             0.15650E+011        0.17991E-033        0.38589E-033
        0.51438E-002         2.7687             0.23906              2424.9             0.18705E+011        0.21503E-033        0.44546E-033
        0.52980E-002         2.7963             0.24756              2434.1             0.22550E+011        0.25923E-033        0.51858E-033
        0.54533E-002         2.8242             0.25617              2442.9             0.26958E+011        0.30990E-033        0.59911E-033
        0.56197E-002         2.8502             0.26551              2453.5             0.33305E+011        0.38286E-033        0.71410E-033
        0.57883E-002         2.8813             0.27483              2461.4             0.39226E+011        0.45093E-033        0.81255E-033
        0.59576E-002         2.9134             0.28421              2468.4             0.45479E+011        0.52282E-033        0.91099E-033
        0.61411E-002         2.9446             0.29441              2477.1             0.54213E+011        0.62322E-033        0.10483E-032
        0.63230E-002         2.9754             0.30472              2485.5             0.64372E+011        0.74001E-033        0.12027E-032
        0.65186E-002         3.0058             0.31581              2495.1             0.77913E+011        0.89566E-033        0.14045E-032
        0.67108E-002         3.0367             0.32692              2503.9             0.92948E+011        0.10685E-032        0.16186E-032
        0.69177E-002         3.0728             0.33849              2510.9             0.10763E+012        0.12373E-032        0.18102E-032
        0.71206E-002         3.1059             0.35022              2518.8             0.12647E+012        0.14538E-032        0.20558E-032
        0.73394E-002         3.1368             0.36297              2528.9             0.15398E+012        0.17701E-032        0.24150E-032
        0.75532E-002         3.1636             0.37605              2540.6             0.19186E+012        0.22056E-032        0.29046E-032
        0.77850E-002         3.1933             0.38996              2551.8             0.23763E+012        0.27317E-032        0.34692E-032
        0.80130E-002         3.2221             0.40390              2562.8             0.29255E+012        0.33631E-032        0.41236E-032
        0.82534E-002         3.2564             0.41819              2571.5             0.34727E+012        0.39922E-032        0.47276E-032
        0.85084E-002         3.2918             0.43321              2580.3             0.41265E+012        0.47437E-032        0.54228E-032
        0.87639E-002         3.3268             0.44845              2588.9             0.48892E+012        0.56205E-032        0.62068E-032
        0.90214E-002         3.3560             0.46442              2600.3             0.60394E+012        0.69427E-032        0.74033E-032
        0.92921E-002         3.3917             0.48071              2609.0             0.71513E+012        0.82209E-032        0.84692E-032
        0.95792E-002         3.4228             0.49833              2620.6             0.88589E+012        0.10184E-031        0.10121E-031
        0.98668E-002         3.4641             0.51531              2626.8             0.10082E+013        0.11590E-031        0.11138E-031
        0.10157E-001         3.4977             0.53326              2636.7             0.12124E+013        0.13938E-031        0.12944E-031
        0.10454E-001         3.5291             0.55192              2647.6             0.14822E+013        0.17039E-031        0.15288E-031
        0.10759E-001         3.5581             0.57130              2659.6             0.18410E+013        0.21164E-031        0.18346E-031
        0.11078E-001         3.5899             0.59105              2670.4             0.22430E+013        0.25785E-031        0.21605E-031
        0.11413E-001         3.6237             0.61156              2680.7             0.27074E+013        0.31123E-031        0.25203E-031
        0.11755E-001         3.6541             0.63303              2692.6             0.33538E+013        0.38555E-031        0.30162E-031
        0.12108E-001         3.6921             0.65442              2701.1             0.39332E+013        0.45215E-031        0.34217E-031
        0.12478E-001         3.7212             0.67813              2714.5             0.49778E+013        0.57224E-031        0.41790E-031
        0.12852E-001         3.7538             0.70207              2726.3             0.61322E+013        0.70494E-031        0.49726E-031
        0.13236E-001         3.7816             0.72761              2740.6             0.78462E+013        0.90198E-031        0.61391E-031
        0.13635E-001         3.8154             0.75383              2752.7             0.97063E+013        0.11158E-030        0.73303E-031
        0.14057E-001         3.8430             0.78264              2768.7             0.12715E+014        0.14617E-030        0.92491E-031
        0.14479E-001         3.8794             0.81093              2780.2             0.15571E+014        0.17900E-030        0.10931E-030
        0.14908E-001         3.9032             0.84175              2797.7             0.20803E+014        0.23915E-030        0.14070E-030
        0.15348E-001         3.9355             0.87324              2811.9             0.26466E+014        0.30425E-030        0.17254E-030
        0.15810E-001         3.9609             0.90781              2830.2             0.35727E+014        0.41071E-030        0.22405E-030
        0.16299E-001         3.9835             0.94564              2851.1             0.50036E+014        0.57520E-030        0.30123E-030
        0.16788E-001         4.0040             0.98552              2873.3             0.71299E+014        0.81964E-030        0.41187E-030
        0.17281E-001         4.0149              1.0279              2899.7             0.10750E+015        0.12358E-029        0.59540E-030
        0.17783E-001         4.0055              1.0735              2934.8             0.18219E+015        0.20944E-029        0.96619E-030
        0.18316E-001         3.9939              1.1225              2972.1             0.31653E+015        0.36387E-029        0.16054E-029
        0.18866E-001         3.9778              1.1746              3012.1             0.56721E+015        0.65204E-029        0.27491E-029
        0.19435E-001         3.9617              1.2297              3053.0             0.10220E+016        0.11748E-028        0.47312E-029
        0.20028E-001         3.9422              1.2887              3096.6             0.18950E+016        0.21784E-028        0.83716E-029
        0.20647E-001         3.9229              1.3511              3141.1             0.35303E+016        0.40583E-028        0.14875E-028
        0.21267E-001         3.9038              1.4154              3185.5             0.65109E+016        0.74847E-028        0.26189E-028
        0.21889E-001         3.8863              1.4812              3229.2             0.11789E+017        0.13552E-027        0.45311E-028
        0.22545E-001         3.8687              1.5513              3274.2             0.21540E+017        0.24762E-027        0.79049E-028
        0.23239E-001         3.8501              1.6261              3320.9             0.39945E+017        0.45920E-027        0.13985E-027
        0.23936E-001         3.8335              1.7024              3366.5             0.72438E+017        0.83273E-027        0.24224E-027
        0.24636E-001         3.8182              1.7805              3411.3             0.12887E+018        0.14815E-026        0.41206E-027
        0.25375E-001         3.8035              1.8634              3457.0             0.23041E+018        0.26488E-026        0.70396E-027
        0.26155E-001         3.7870              1.9521              3505.0             0.42080E+018        0.48374E-026        0.12272E-026
        0.26939E-001         3.7735              2.0426              3551.3             0.74647E+018        0.85813E-026        0.20805E-026
        0.27726E-001         3.7624              2.1347              3596.0             0.12903E+019        0.14833E-025        0.34411E-026
        0.28557E-001         3.7497              2.2333              3642.9             0.22760E+019        0.26165E-025        0.58019E-026
        0.29433E-001         3.7379              2.3377              3690.6             0.40191E+019        0.46203E-025        0.97880E-026
        0.30021E-001         3.5048              2.6855              3945.8             0.68162E+020        0.78357E-024        0.14450E-024
        0.30622E-001         3.3904              2.8265              4063.5             0.23411E+021        0.26912E-023        0.47153E-024
        0.31239E-001         3.2944              2.9689              4173.2             0.71870E+021        0.82620E-023        0.13782E-023
        0.31864E-001         3.2123              3.1126              4276.5             0.20156E+022        0.23171E-022        0.36867E-023
        0.32501E-001         3.1395              3.2595              4375.9             0.53253E+022        0.61218E-022        0.93010E-023
        0.33156E-001         3.0734              3.4110              4473.3             0.13511E+023        0.15532E-021        0.22550E-022
        0.33819E-001         3.0127              3.5665              4568.7             0.33050E+023        0.37994E-021        0.52757E-022
        0.34496E-001         2.9559              3.7279              4663.7             0.79107E+023        0.90939E-021        0.12081E-021
        0.35191E-001         2.9022              3.8955              4758.7             0.18613E+024        0.21396E-020        0.27201E-021
        0.35895E-001         2.8514              4.0692              4853.6             0.43039E+024        0.49476E-020        0.60213E-021
        0.36613E-001         2.8028              4.2498              4948.9             0.98319E+024        0.11302E-019        0.13171E-020
        0.37348E-001         2.7559              4.4382              5045.2             0.22308E+025        0.25645E-019        0.28615E-020
        0.38104E-001         2.7104              4.6360              5143.1             0.50516E+025        0.58072E-019        0.62035E-020
        0.38866E-001         2.6666              4.8406              5241.5             0.11309E+026        0.13001E-018        0.13301E-019
        0.39643E-001         2.6242              5.0539              5340.9             0.25151E+026        0.28913E-018        0.28332E-019
        0.40445E-001         2.5831              5.2774              5441.8             0.55797E+026        0.64143E-018        0.60191E-019
        0.41255E-001         2.5435              5.5085              5543.2             0.12238E+027        0.14069E-017        0.12648E-018
        0.42080E-001         2.5048              5.7501              5646.1             0.26785E+027        0.30792E-017        0.26520E-018
        0.42922E-001         2.4675              6.0005              5749.5             0.58043E+027        0.66725E-017        0.55069E-018
        0.43777E-001         2.4315              6.2611              5853.8             0.12493E+028        0.14361E-016        0.11359E-017
        0.44644E-001         2.3967              6.5308              5958.7             0.26628E+028        0.30611E-016        0.23212E-017
        0.45537E-001         2.3627              6.8132              6065.2             0.59639E+028        0.68560E-016        0.49834E-017
        0.46448E-001         2.3298              7.1066              6172.7             0.12651E+029        0.14543E-015        0.10135E-016
        0.47369E-001         2.2980              7.4101              6280.5             0.36978E+029        0.42509E-015        0.28409E-016
        0.48316E-001         2.2671              7.7271              6389.7             0.11779E+030        0.13541E-014        0.86786E-016
        0.49283E-001         2.2371              8.0565              6499.9             0.26744E+030        0.30744E-014        0.18898E-015
        0.50260E-001         2.2081              8.3968              6610.5             0.42764E+030        0.49160E-014        0.28994E-015
        0.51265E-001         2.1797              8.7528              6722.8             0.66518E+030        0.76467E-014        0.43265E-015
        0.52291E-001         2.1521              9.1225              6836.0             0.98269E+030        0.11297E-013        0.61326E-015
        0.53325E-001         2.1254              9.5040              6949.6             0.15008E+031        0.17253E-013        0.89902E-015
        0.54392E-001         2.0991              9.9036              7065.4             0.25306E+031        0.29091E-013        0.14547E-014
        0.55479E-001         2.0735              10.319              7182.4             0.49436E+031        0.56830E-013        0.27273E-014
        0.56576E-001         2.0487              10.748              7299.6             0.10462E+032        0.12027E-012        0.55418E-014
        0.57708E-001         2.0242              11.196              7419.0             0.25526E+032        0.29344E-012        0.12980E-013
        0.58862E-001         2.0004              11.662              7539.6             0.46365E+032        0.53300E-012        0.22633E-013
        0.60032E-001         2.0947              11.490              7340.6             0.15000E+032        0.17244E-012        0.74323E-014
        0.61244E-001         2.0758              11.937              7444.6             0.31223E+032        0.35893E-012        0.14891E-013
        0.62470E-001         2.0573              12.399              7549.3             0.53126E+032        0.61073E-012        0.24393E-013
        0.63738E-001         2.0388              12.885              7656.7             0.12709E+033        0.14610E-011        0.56155E-013
        0.65012E-001         2.0212              13.380              7762.8             0.25062E+033        0.28811E-011        0.10664E-012
        0.66323E-001         2.0036              13.898              7871.3             0.85324E+033        0.98086E-011        0.34951E-012
        0.67636E-001         1.9866              14.429              7979.3             0.23059E+034        0.26508E-010        0.90979E-012
        0.68982E-001         1.9699              14.982              8088.9             0.35154E+034        0.40412E-010        0.13358E-011
        0.70326E-001         1.9537              15.545              8197.4             0.14499E+035        0.16667E-009        0.53098E-011
        0.71704E-001         1.9378              16.131              8307.7             0.22888E+035        0.26312E-009        0.80777E-011
        0.73151E-001         1.9217              16.751              8421.3             0.35728E+035        0.41072E-009        0.12143E-010
        0.74634E-001         1.9057              17.398              8537.0             0.53183E+035        0.61138E-009        0.17403E-010
        0.76118E-001         1.8904              18.057              8651.5             0.91574E+035        0.10527E-008        0.28872E-010
        0.77643E-001         1.8753              18.744              8767.9             0.15755E+036        0.18112E-008        0.47853E-010
        0.79171E-001         1.8607              19.447              8883.6             0.26833E+036        0.30846E-008        0.78553E-010
        0.80741E-001         1.8461              20.181              9001.5             0.39784E+036        0.45735E-008        0.11223E-009
        0.82315E-001         1.8321              20.931              9118.9             0.56296E+036        0.64716E-008        0.15312E-009
        0.83932E-001         1.8181              21.712              9238.0             0.79485E+036        0.91374E-008        0.20841E-009
        0.85633E-001         1.8039              22.540              9361.4             0.11872E+037        0.13647E-007        0.29985E-009
        0.87376E-001         1.7899              23.401              9486.4             0.18269E+037        0.21001E-007        0.44444E-009
        0.89117E-001         1.7764              24.280              9610.6             0.27196E+037        0.31264E-007        0.63768E-009
        0.90895E-001         1.7631              25.192              9736.1             0.40217E+037        0.46233E-007        0.90885E-009
        0.92663E-001         1.7503              26.120              9860.4             0.58952E+037        0.67769E-007        0.12849E-008
        0.94463E-001         1.7377              27.078              9985.6             0.85857E+037        0.98699E-007        0.18051E-008
        0.96336E-001         1.7251              28.085              10114.             0.12440E+038        0.14301E-006        0.25217E-008
        0.98233E-001         1.7127              29.125              10243.             0.18001E+038        0.20694E-006        0.35187E-008
        0.10020              1.7003              30.214              10375.             0.26228E+038        0.30152E-006        0.49421E-008
        0.10217              1.6882              31.327              10507.             0.38359E+038        0.44097E-006        0.69709E-008
        0.10419              1.6763              32.487              10641.             0.56414E+038        0.64852E-006        0.98859E-008
        0.10621              1.6646              33.672              10774.             0.83022E+038        0.95440E-006        0.14037E-007
        0.10827              1.6532              34.900              10908.             0.12357E+039        0.14206E-005        0.20158E-007
        0.11043              1.6416              36.195              11047.             0.18655E+039        0.21446E-005        0.29342E-007
        0.11262              1.6301              37.532              11187.             0.28106E+039        0.32309E-005        0.42631E-007
        0.11489              1.6187              38.935              11330.             0.42214E+039        0.48528E-005        0.61725E-007
        0.11717              1.6075              40.370              11472.             0.62415E+039        0.71750E-005        0.88017E-007
        0.11951              1.5965              41.866              11617.             0.89207E+039        0.10255E-004        0.12130E-006
        0.12184              1.5857              43.388              11761.             0.12196E+040        0.14020E-004        0.16003E-006
        0.12428              1.5749              44.994              11909.             0.11053E+040        0.12706E-004        0.13985E-006
        0.12675              1.5642              46.653              12058.             0.11713E+040        0.13465E-004        0.14293E-006
        0.12931              1.5535              48.387              12210.             0.15981E+040        0.18371E-004        0.18802E-006
        0.13186              1.5432              50.160              12362.             0.21414E+040        0.24617E-004        0.24304E-006
        0.13447              1.5329              51.992              12515.             0.28591E+040        0.32867E-004        0.31306E-006
        0.13715              1.5227              53.910              12671.             0.37959E+040        0.43637E-004        0.40086E-006
        0.13984              1.5127              55.869              12827.             0.50113E+040        0.57609E-004        0.51065E-006
        0.14258              1.5028              57.895              12984.             0.66111E+040        0.75999E-004        0.65010E-006
        0.14540              1.4930              60.012              13144.             0.92952E+040        0.10685E-003        0.88179E-006
        0.14824              1.4834              62.179              13304.             0.13151E+041        0.15118E-003        0.12041E-005
        0.15113              1.4739              64.423              13466.             0.18678E+041        0.21472E-003        0.16506E-005
        0.15413              1.4644              66.776              13632.             0.26785E+041        0.30791E-003        0.22836E-005
        0.15716              1.4550              69.195              13797.             0.38445E+041        0.44195E-003        0.31631E-005
        0.16029              1.4458              71.716              13966.             0.55559E+041        0.63869E-003        0.44104E-005
        0.16343              1.4368              74.296              14133.             0.69238E+041        0.79594E-003        0.53055E-005
        0.16667              1.4280              76.984              14304.             0.83297E+041        0.95756E-003        0.61598E-005
        0.16997              1.4195              79.750              14474.             0.10029E+042        0.11529E-002        0.71595E-005
        0.17328              1.4114              82.568              14642.             0.12051E+042        0.13853E-002        0.83088E-005
        0.17675              1.4035              85.522              14813.             0.14527E+042        0.16699E-002        0.96701E-005
        0.18025              1.3962              88.529              14980.             0.17455E+042        0.20065E-002        0.11225E-004
        0.18385              1.3896              91.607              15144.             0.21761E+042        0.25016E-002        0.13524E-004
        0.18750              1.3841              94.720              15302.             0.27053E+042        0.31099E-002        0.16260E-004
        0.19121              1.3797              97.850              15451.             0.33270E+042        0.38246E-002        0.19357E-004
        0.19507              1.3768              101.01              15591.             0.40506E+042        0.46565E-002        0.22829E-004
        0.19896              1.3757              104.13              15716.             0.48360E+042        0.55593E-002        0.26441E-004
        0.20294              1.3766              107.17              15824.             0.56548E+042        0.65006E-002        0.30038E-004
        0.20700              1.3795              110.15              15917.             0.64780E+042        0.74470E-002        0.33480E-004
        0.21114              1.3847              113.03              15989.             0.72107E+042        0.82892E-002        0.36318E-004
        0.21536              1.3926              115.76              16039.             0.77834E+042        0.89476E-002        0.38277E-004
        0.21977              1.4019              118.50              16080.             0.82658E+042        0.95022E-002        0.39711E-004
        0.22414              1.4143              120.98              16092.             0.85363E+042        0.98131E-002        0.40169E-004
        0.22856              1.4279              123.39              16095.             0.87264E+042        0.10032E-001        0.40261E-004
        0.23317              1.4432              125.77              16086.             0.88226E+042        0.10142E-001        0.39935E-004
        0.23797              1.4592              128.20              16074.             0.88935E+042        0.10224E-001        0.39494E-004
        0.24283              1.4766              130.55              16052.             0.88780E+042        0.10206E-001        0.38715E-004
        0.24766              1.4957              132.75              16016.             0.87186E+042        0.10023E-001        0.37391E-004
        0.25253              1.5158              134.87              15972.             0.84472E+042        0.97107E-002        0.35656E-004
        0.25747              1.5357              137.07              15933.             0.82155E+042        0.94443E-002        0.34122E-004
        0.26261              1.5569              139.26              15887.             0.79011E+042        0.90829E-002        0.32301E-004
        0.26792              1.5784              141.52              15842.             0.76225E+042        0.87626E-002        0.30664E-004
        0.27336              1.6001              143.83              15798.             0.73576E+042        0.84581E-002        0.29122E-004
        0.27868              1.6221              146.07              15751.             0.70698E+042        0.81273E-002        0.27555E-004
        0.28410              1.6442              148.36              15706.             0.68077E+042        0.78259E-002        0.26123E-004
        0.28978              1.6672              150.70              15658.             0.65377E+042        0.75155E-002        0.24697E-004
        0.29564              1.6902              153.15              15614.             0.63101E+042        0.72540E-002        0.23456E-004
        0.30148              1.7133              155.59              15570.             0.60877E+042        0.69983E-002        0.22274E-004
        0.30747              1.7380              157.97              15518.             0.58147E+042        0.66844E-002        0.20955E-004
        0.31357              1.7642              160.28              15458.             0.54936E+042        0.63153E-002        0.19513E-004
        0.31973              1.7899              162.67              15404.             0.52340E+042        0.60168E-002        0.18318E-004
        0.32599              1.8149              165.19              15356.             0.50278E+042        0.57798E-002        0.17328E-004
        0.33255              1.8408              167.77              15307.             0.48202E+042        0.55411E-002        0.16356E-004
        0.33900              1.8668              170.32              15257.             0.46157E+042        0.53061E-002        0.15428E-004
        0.34569              1.8921              173.06              15216.             0.44683E+042        0.51367E-002        0.14699E-004
        0.35245              1.9169              175.89              15178.             0.43475E+042        0.49978E-002        0.14072E-004
        0.35953              1.9411              178.94              15148.             0.42720E+042        0.49110E-002        0.13592E-004
        0.36685              1.9662              182.04              15116.             0.41859E+042        0.48119E-002        0.13091E-004
        0.37422              1.9915              185.16              15084.             0.41011E+042        0.47146E-002        0.12609E-004
        0.38178              2.0159              188.48              15059.             0.40557E+042        0.46623E-002        0.12250E-004
        0.38943              2.0416              191.72              15028.             0.39779E+042        0.45729E-002        0.11813E-004
        0.39727              2.0666              195.12              15002.             0.39360E+042        0.45248E-002        0.11484E-004
        0.40535              2.0909              198.72              14983.             0.39292E+042        0.45168E-002        0.11257E-004
        0.41332              2.1162              202.19              14958.             0.39108E+042        0.44958E-002        0.11012E-004
        0.42154              2.1407              205.86              14939.             0.39151E+042        0.45007E-002        0.10827E-004
        0.43000              2.1643              209.76              14927.             0.39472E+042        0.45376E-002        0.10713E-004
        0.43875              2.1869              213.89              14923.             0.40075E+042        0.46069E-002        0.10666E-004
        0.44768              2.2100              218.10              14917.             0.40660E+042        0.46742E-002        0.10613E-004
        0.45651              2.2324              222.33              14913.             0.41318E+042        0.47498E-002        0.10580E-004
        0.46539              2.2549              226.61              14910.             0.41979E+042        0.48258E-002        0.10546E-004
        0.47451              2.2762              231.13              14913.             0.42947E+042        0.49371E-002        0.10578E-004
        0.48402              2.2957              236.06              14928.             0.44459E+042        0.51108E-002        0.10722E-004
        0.49378              2.3153              241.13              14944.             0.46062E+042        0.52951E-002        0.10875E-004
        0.50378              2.3337              246.47              14967.             0.48036E+042        0.55221E-002        0.11096E-004
        0.51409              2.3522              251.98              14991.             0.50181E+042        0.57687E-002        0.11337E-004
        0.52412              2.3697              257.51              15016.             0.52760E+042        0.60652E-002        0.11664E-004
        0.53458              2.3849              263.53              15055.             0.56458E+042        0.64903E-002        0.12197E-004
        0.54524              2.4017              269.51              15087.             0.59910E+042        0.68871E-002        0.12655E-004
        0.55615              2.4149              276.08              15136.             0.65009E+042        0.74732E-002        0.13405E-004
        0.56703              2.4261              282.91              15194.             0.71216E+042        0.81868E-002        0.14331E-004
        0.57837              2.4350              290.32              15264.             0.79349E+042        0.91217E-002        0.15560E-004
        0.58970              2.4433              297.89              15337.             0.88636E+042        0.10189E-001        0.16940E-004
        0.60171              2.4499              306.09              15420.             0.10043E+043        0.11545E-001        0.18679E-004
        0.61401              2.4563              314.57              15506.             0.11414E+043        0.13121E-001        0.20657E-004
        0.62644              2.4626              323.22              15592.             0.12968E+043        0.14907E-001        0.22840E-004
        0.63887              2.4691              331.99              15676.             0.14698E+043        0.16896E-001        0.25204E-004
        0.65159              2.4749              341.08              15763.             0.16749E+043        0.19254E-001        0.27956E-004
        0.66439              2.4808              350.34              15850.             0.19050E+043        0.21899E-001        0.30956E-004
        0.67768              2.4862              360.04              15942.             0.21793E+043        0.25053E-001        0.34460E-004
        0.69124              2.4915              370.02              16034.             0.24749E+043        0.28451E-001        0.38079E-004
        0.70470              2.4963              380.17              16127.             0.27700E+043        0.31843E-001        0.41480E-004
        0.71908              2.5026              390.71              16217.             0.30923E+043        0.35548E-001        0.45058E-004
        0.73351              2.5070              401.72              16316.             0.34795E+043        0.39999E-001        0.49309E-004
        0.74840              2.5135              412.80              16406.             0.38811E+043        0.44616E-001        0.53526E-004
        0.76322              2.5192              424.11              16499.             0.43399E+043        0.49890E-001        0.58256E-004
        0.77858              2.5247              435.89              16594.             0.48692E+043        0.55975E-001        0.63595E-004
        0.79421              2.5273              448.49              16704.             0.55389E+043        0.63674E-001        0.70310E-004
        0.80993              2.5342              460.57              16793.             0.61705E+043        0.70934E-001        0.76272E-004
        0.82591              2.5387              473.36              16893.             0.69494E+043        0.79889E-001        0.83580E-004
        0.84267              2.5471              486.07              16977.             0.77065E+043        0.88591E-001        0.90260E-004
        0.85942              2.5530              499.40              17073.             0.85482E+043        0.98267E-001        0.97447E-004
        0.87613              2.5563              513.39              17180.             0.95388E+043        0.10966             0.10578E-003
        0.89364              2.5650              526.94              17263.             0.10434E+044        0.11995             0.11273E-003
        0.91170              2.5696              541.82              17368.             0.11625E+044        0.13364             0.12215E-003
        0.93024              2.5801              555.95              17444.             0.12645E+044        0.14536             0.12948E-003
        0.94924              2.5872              571.22              17539.             0.13963E+044        0.16051             0.13916E-003
        0.96775              2.5913              587.08              17645.             0.15567E+044        0.17895             0.15095E-003
        0.98679              2.6021              601.92              17719.             0.16884E+044        0.19409             0.15969E-003
         1.0062              2.6078              618.38              17819.             0.18732E+044        0.21534             0.17246E-003
         1.0269              2.6202              634.19              17890.             0.20264E+044        0.23296             0.18191E-003
         1.0476              2.6269              651.53              17988.             0.22432E+044        0.25787             0.19601E-003
         1.0682              2.6412              667.14              18045.             0.23933E+044        0.27513             0.20423E-003
         1.0895              2.6400              687.32              18185.             0.27198E+044        0.31266             0.22528E-003
         1.1116              2.6461              706.45              18288.             0.30072E+044        0.34570             0.24234E-003
         1.1335              2.6613              723.13              18343.             0.31980E+044        0.36763             0.25177E-003
         1.1565              2.6792              740.02              18387.             0.33764E+044        0.38814             0.25975E-003
         1.1795              2.6902              758.85              18465.             0.36563E+044        0.42032             0.27430E-003
         1.2025              2.7101              775.45              18497.             0.38216E+044        0.43932             0.28056E-003
         1.2261              2.7183              795.88              18590.             0.41870E+044        0.48133             0.29951E-003
         1.2508              2.7390              813.56              18621.             0.43763E+044        0.50309             0.30624E-003
         1.2751              2.7517              833.51              18691.             0.47086E+044        0.54129             0.32161E-003
         1.3014              2.7773              851.01              18702.             0.48433E+044        0.55677             0.32401E-003
         1.3280              2.7820              875.21              18817.             0.54018E+044        0.62097             0.35137E-003
         1.3550              2.8007              895.58              18863.             0.57040E+044        0.65571             0.36259E-003
         1.3829              2.8176              917.27              18919.             0.60770E+044        0.69859             0.37717E-003
         1.4112              2.8526              933.55              18885.             0.60412E+044        0.69448             0.36841E-003
         1.4394              2.8758              953.68              18910.             0.62777E+044        0.72166             0.37475E-003
         1.4684              2.8820              980.07              19019.             0.69025E+044        0.79350             0.40096E-003
         1.4987              2.9002              1003.6              19071.             0.71428E+044        0.82111             0.40520E-003
         1.5128              2.9246              1009.5              19020.             0.71111E+044        0.81748             0.40105E-003
         1.5286              2.9437              1018.3              18999.             0.71310E+044        0.81976             0.39867E-003
         1.5447              2.9546              1030.1              19019.             0.72557E+044        0.83409             0.40098E-003
         1.5597              2.9693              1040.0              19017.             0.73219E+044        0.84171             0.40081E-003
         1.5756              2.9824              1051.1              19026.             0.74131E+044        0.85219             0.40152E-003
         1.5911              3.0029              1059.3              18998.             0.74106E+044        0.85190             0.39827E-003
         1.6063              3.0206              1068.3              18982.             0.73947E+044        0.85008             0.39408E-003
         1.6223              3.0338              1079.4              18990.             0.75115E+044        0.86350             0.39617E-003
         1.6394              3.0548              1088.5              18964.             0.74478E+044        0.85617             0.38951E-003
         1.6557              3.0717              1098.6              18955.             0.74710E+044        0.85885             0.38715E-003
         1.6725              3.0850              1110.3              18965.             0.75984E+044        0.87349             0.38962E-003
         1.6901              3.1024              1121.0              18957.             0.76321E+044        0.87737             0.38759E-003
         1.7067              3.1190              1131.4              18950.             0.76637E+044        0.88100             0.38562E-003
         1.7228              3.1384              1140.5              18929.             0.76103E+044        0.87486             0.37988E-003
         1.7390              3.1480              1153.2              18953.             0.78286E+044        0.89996             0.38647E-003
         1.7555              3.1621              1164.6              18957.             0.79278E+044        0.91135             0.38755E-003
         1.7734              3.1790              1175.8              18952.             0.79749E+044        0.91677             0.38613E-003
         1.7911              3.2062              1183.2              18901.             0.77411E+044        0.88989             0.37247E-003
         1.8087              3.2289              1192.1              18869.             0.76286E+044        0.87697             0.36432E-003
         1.8266              3.2407              1205.2              18887.             0.78074E+044        0.89751             0.36879E-003
         1.8453              3.2588              1216.6              18879.             0.78360E+044        0.90081             0.36668E-003
         1.8637              3.2833              1225.5              18842.             0.76953E+044        0.88463             0.35749E-003
         1.8821              3.3081              1234.2              18805.             0.75506E+044        0.86800             0.34829E-003
         1.9014              3.3304              1244.5              18781.             0.74874E+044        0.86073             0.34252E-003
         1.9196              3.3552              1253.1              18744.             0.73426E+044        0.84408             0.33358E-003
         1.9385              3.3736              1264.6              18735.             0.73651E+044        0.84667             0.33157E-003
         1.9586              3.3986              1274.3              18702.             0.72522E+044        0.83369             0.32398E-003
         1.9784              3.4216              1284.7              18677.             0.71801E+044        0.82541             0.31818E-003
         1.9986              3.4503              1293.2              18629.             0.69947E+044        0.80409             0.30793E-003
         2.0191              3.4769              1302.7              18592.             0.68640E+044        0.78907             0.29997E-003
         2.0392              3.4987              1313.7              18573.             0.68295E+044        0.78510             0.29596E-003
         2.0597              3.5271              1322.6              18529.             0.66655E+044        0.76625             0.28691E-003
         2.0800              3.5450              1335.2              18527.             0.67167E+044        0.77214             0.28638E-003
         2.1002              3.5739              1343.7              18480.             0.65428E+044        0.75215             0.27722E-003
         2.1215              3.6073              1351.2              18420.             0.63108E+044        0.72548             0.26590E-003
         2.1416              3.6426              1357.3              18352.             0.60394E+044        0.69428             0.25332E-003
         2.1634              3.6760              1365.2              18294.             0.58357E+044        0.67086             0.24336E-003
         2.1841              3.7106              1372.0              18232.             0.56117E+044        0.64510             0.23286E-003
         2.2061              3.7386              1382.0              18196.             0.55129E+044        0.63375             0.22711E-003
         2.2271              3.7728              1389.1              18137.             0.53174E+044        0.61127             0.21793E-003
         2.2503              3.8062              1398.0              18086.             0.51621E+044        0.59343             0.21022E-003
         2.2730              3.8418              1405.7              18027.             0.49766E+044        0.57210             0.20155E-003
         2.2949              3.8728              1414.6              17983.             0.48523E+044        0.55781             0.19529E-003
         2.3166              3.9089              1421.6              17922.             0.46543E+044        0.53505             0.18639E-003
         2.3401              3.9440              1430.0              17868.             0.44957E+044        0.51681             0.17898E-003
         2.3635              3.9799              1438.1              17812.             0.43338E+044        0.49820             0.17156E-003
         2.3873              4.0173              1445.9              17753.             0.41646E+044        0.47875             0.16397E-003
         2.4115              4.0555              1453.7              17693.             0.39996E+044        0.45978             0.15663E-003
         2.4363              4.0944              1461.7              17633.             0.38409E+044        0.44153             0.14959E-003
         2.4613              4.1273              1471.9              17593.             0.37507E+044        0.43117             0.14507E-003
         2.4872              4.1704              1479.1              17523.             0.35737E+044        0.41082             0.13755E-003
         2.5108              4.2133              1485.0              17451.             0.33957E+044        0.39036             0.13018E-003
         2.5365              4.2567              1492.0              17383.             0.32379E+044        0.37222             0.12355E-003
         2.5604              4.2997              1498.2              17313.             0.30839E+044        0.35451             0.11719E-003
         2.5873              4.3448              1505.3              17244.             0.29377E+044        0.33771             0.11110E-003
         2.6132              4.3912              1511.6              17170.             0.27875E+044        0.32044             0.10498E-003
         2.6385              4.4372              1517.7              17098.             0.26490E+044        0.30453             0.99371E-004
         2.6634              4.4823              1523.8              17029.             0.25229E+044        0.29002             0.94257E-004
         2.6901              4.5291              1530.5              16959.             0.23872E+044        0.27442             0.88798E-004
         2.7171              4.5808              1535.7              16878.             0.22245E+044        0.25572             0.82463E-004
         2.7447              4.6348              1540.6              16793.             0.20641E+044        0.23729             0.76275E-004
         2.7732              4.6902              1545.6              16707.             0.19133E+044        0.21995             0.70473E-004
         2.8010              4.7470              1549.8              16618.             0.17692E+044        0.20338             0.64986E-004
         2.8285              4.8046              1553.8              16528.             0.16339E+044        0.18783             0.59866E-004
         2.8560              4.8620              1557.9              16441.             0.15125E+044        0.17387             0.55273E-004
         2.8837              4.9200              1561.8              16355.             0.14010E+044        0.16105             0.51067E-004
         2.9121              4.9818              1565.2              16262.             0.12900E+044        0.14830             0.46919E-004
         2.9417              5.0465              1568.4              16165.             0.11833E+044        0.13603             0.42952E-004
         2.9728              5.1134              1571.9              16068.             0.10848E+044        0.12470             0.39288E-004
         3.0026              5.1821              1574.2              15967.             0.98005E+043        0.11266             0.35443E-004
         3.0318              5.2513              1576.2              15866.             0.87337E+043        0.10040             0.31546E-004
         3.0607              5.3215              1577.8              15766.             0.77703E+043        0.89325E-001        0.28036E-004
         3.0897              5.3929              1579.3              15665.             0.69012E+043        0.79334E-001        0.24877E-004
         3.1190              5.4656              1580.8              15564.             0.61376E+043        0.70556E-001        0.22104E-004
         3.1491              5.5418              1581.8              15459.             0.54274E+043        0.62392E-001        0.19533E-004
         3.1805              5.6216              1582.6              15350.             0.47843E+043        0.54999E-001        0.17211E-004
         3.2136              5.7071              1582.9              15236.             0.41838E+043        0.48096E-001        0.15047E-004
         3.2460              5.7963              1582.0              15116.             0.36382E+043        0.41824E-001        0.13092E-004
         3.2783              5.8905              1580.0              14990.             0.31450E+043        0.36154E-001        0.11332E-004
         3.3111              5.9877              1577.8              14862.             0.28012E+043        0.32202E-001        0.10108E-004
         3.3447              6.0899              1574.9              14731.             0.24878E+043        0.28599E-001        0.89931E-005
         3.3800              6.1988              1571.5              14593.             0.21946E+043        0.25228E-001        0.79502E-005
         3.4141              6.3115              1566.9              14451.             0.19316E+043        0.22205E-001        0.70183E-005
         3.4479              6.4313              1560.8              14302.             0.16864E+043        0.19387E-001        0.61511E-005
         3.4820              6.5574              1554.0              14148.             0.14675E+043        0.16870E-001        0.53760E-005
         3.5518              6.8255              1539.0              13834.             0.91996E+042        0.10576E-001        0.34031E-005
         3.6231              7.1393              1517.3              13479.             0.45103E+042        0.51849E-002        0.16923E-005
         3.6960              7.5143              1487.7              13074.             0.20085E+042        0.23089E-002        0.76862E-006
         3.7705              7.9766              1447.6              12603.             0.91415E+041        0.10509E-002        0.35952E-006
         3.8466              8.6145              1387.6              12000.             0.32044E+041        0.36837E-003        0.13147E-006
         3.9245              9.7954              1273.4              11014.             0.60020E+040        0.68997E-004        0.26833E-007
         4.0031              20.909              1433.0              7764.5             0.27294E+035        0.31377E-009        0.10843E-012
         4.0837              27.311              2027.2              7409.2             0.43125E+034        0.49576E-010        0.12111E-013
         4.1649              31.302              2319.0              7157.3             0.97598E+033        0.11220E-010        0.23960E-014
         4.2478              34.256              2521.0              6986.2             0.44271E+033        0.50893E-011        0.99975E-015
         4.3323              36.648              2691.6              6865.8             0.32129E+033        0.36934E-011        0.67956E-015
         4.4185              38.619              2847.6              6783.1             0.25455E+033        0.29263E-011        0.50891E-015
         4.5065              40.258              2997.9              6729.6             0.23018E+033        0.26461E-011        0.43711E-015
         4.5962              41.596              3146.6              6701.1             0.22646E+033        0.26033E-011        0.40973E-015
         4.6876              42.663              3295.5              6693.7             0.23063E+033        0.26513E-011        0.39842E-015
         4.7808              43.461              3445.8              6706.4             0.25296E+033        0.29080E-011        0.41794E-015
         4.8759              44.019              3598.3              6736.2             0.27903E+033        0.32077E-011        0.44147E-015
         4.9728              44.383              3754.5              6780.2             0.33201E+033        0.38167E-011        0.50344E-015
         5.0717              44.581              3914.8              6836.2             0.42194E+033        0.48505E-011        0.61360E-015
         5.1726              44.627              4081.5              6904.3             0.55623E+033        0.63942E-011        0.77584E-015
         5.2755              44.551              4255.3              6982.6             0.73634E+033        0.84648E-011        0.98513E-015
         5.3804              44.435              4438.7              7065.8             0.11363E+034        0.13062E-010        0.14574E-014
         5.4875              44.206              4632.1              7160.0             0.19956E+034        0.22940E-010        0.24526E-014
         5.5967              43.917              4835.9              7261.3             0.35707E+034        0.41048E-010        0.42036E-014
         5.7081              43.558              5049.4              7370.3             0.81501E+034        0.93692E-010        0.91891E-014
         5.8218              43.144              5280.3              7488.9             0.16802E+035        0.19315E-009        0.18115E-013
         5.9378              42.693              5524.7              7613.9             0.41991E+035        0.48271E-009        0.43270E-013
         6.0561              42.217              5783.5              7744.9             0.97292E+035        0.11184E-008        0.95770E-013
         6.1769              41.697              6059.3              7884.4             0.42883E+036        0.49297E-008        0.40291E-012
         6.3001              41.139              6353.3              8032.2             0.12427E+037        0.14286E-007        0.11136E-011
         6.4259              40.561              6668.6              8187.8             0.59941E+037        0.68906E-007        0.51172E-011
         6.5572              40.144              7045.7              8344.2             0.11471E+038        0.13187E-006        0.92690E-011
         6.6880              39.444              7388.1              8518.3             0.20918E+038        0.24046E-006        0.16119E-010
         6.8227              38.897              7801.0              8695.4             0.47915E+038        0.55082E-006        0.34968E-010
         6.9588              38.245              8216.0              8883.6             0.11339E+039        0.13034E-005        0.78567E-010
         7.0987              37.678              8700.0              9079.2             0.21080E+039        0.24233E-005        0.13794E-009
         7.2410              37.025              9202.0              9288.3             0.38426E+039        0.44174E-005        0.23773E-009
         7.3867              36.380              9759.9              9509.2             0.81680E+039        0.93897E-005        0.47644E-009
         7.5351              35.683              10355.              9744.6             0.16927E+040        0.19459E-004        0.93066E-009
         7.6869              34.968              11007.              9995.2             0.35791E+040        0.41144E-004        0.18512E-008
         7.8417              34.205              11708.              10263.             0.76248E+040        0.87653E-004        0.37075E-008
         7.9999              33.407              12472.              10551.             0.17125E+041        0.19686E-003        0.78170E-008
         8.1613              32.559              13291.              10858.             0.41086E+041        0.47231E-003        0.17599E-007
         8.3262              31.678              14180.              11188.             0.10657E+042        0.12251E-002        0.42785E-007
         8.4945              30.756              15136.              11541.             0.27307E+042        0.31391E-002        0.10271E-006
         8.6664              29.803              16173.              11920.             0.39326E+042        0.45208E-002        0.13843E-006
         8.8418              28.808              17282.              12327.             0.69589E+042        0.79998E-002        0.22924E-006
         9.0209              27.782              18478.              12764.             0.15047E+043        0.17297E-001        0.46358E-006
         9.2038              26.725              19757.              13234.             0.36398E+043        0.41842E-001        0.10488E-005
         9.3904              25.644              21119.              13737.             0.10413E+044        0.11971             0.28070E-005
         9.5808              24.551              22569.              14274.             0.23791E+044        0.27349             0.60012E-005
         9.7751              23.449              24105.              14848.             0.42249E+044        0.48568             0.99779E-005
         9.9734              22.348              25732.              15460.             0.88427E+044         1.0165             0.19564E-004
         10.176              21.249              27440.              16112.             0.19716E+045         2.2664             0.40904E-004
         10.382              20.171              29236.              16801.             0.39468E+045         4.5371             0.76854E-004
         10.592              19.104              31103.              17533.             0.75683E+045         8.7003             0.13853E-003
         10.807              18.059              33052.              18309.             0.14273E+046         16.408             0.24585E-003
         11.026              17.046              35069.              19126.             0.25238E+046         29.013             0.40971E-003
         11.249              16.070              37157.              19986.             0.31769E+046         36.521             0.48675E-003
         11.477              15.137              39298.              20883.             0.55393E+046         63.678             0.80247E-003
         11.710              14.250              41528.              21822.             0.10341E+047         118.87             0.14176E-002
         11.947              13.398              43776.              22803.             0.20225E+047         232.51             0.26303E-002
         12.189              12.598              46114.              23824.             0.39574E+047         454.94             0.48857E-002
         12.434              11.831              48403.              24884.             0.78547E+047         902.95             0.92385E-002
         12.685              11.138              50940.              25976.             0.10452E+048         1201.5             0.11681E-001
         12.940              10.472              53310.              27096.             0.12406E+048         1426.1             0.13248E-001
         13.199              9.8636              55805.              28240.             0.22120E+048         2542.8             0.22566E-001
         14.255              8.0832              63115.              32170.             0.76812E+048         8830.1             0.69285E-001
         14.540              7.6882              64264.              33135.             0.10324E+049         11868.             0.91458E-001
         14.686              7.5007              64710.              33605.             0.11786E+049         13549.             0.10369     
         14.833              7.3548              65093.              33987.             0.13069E+049         15024.             0.11430     
         14.981              7.2066              65320.              34364.             0.14268E+049         16402.             0.12435     
         15.131              7.0748              65554.              34714.             0.15421E+049         17727.             0.13392     
         15.282              6.9456              65718.              35057.             0.16585E+049         19066.             0.14367     
         15.435              6.8038              65627.              35408.             0.17523E+049         20144.             0.15201     
         15.589              6.7062              66267.              35752.             0.18672E+049         21465.             0.16041     
         15.745              6.5791              66060.              36067.             0.19550E+049         22474.             0.16848     
         15.903              6.4642              66021.              36381.             0.20505E+049         23572.             0.17681     
         16.062              6.3709              66236.              36676.             0.21521E+049         24740.             0.18497     
         16.222              6.2940              66639.              36956.             0.22425E+049         25780.             0.19158     
         16.384              6.1863              66048.              37193.             0.22868E+049         26288.             0.19711     
         16.548              6.1104              66129.              37435.             0.23565E+049         27089.             0.20287     
         16.714              6.0371              65994.              37642.             0.24101E+049         27706.             0.20791     
         17.048              5.9158              65668.              37979.             0.24926E+049         28655.             0.21610     
         17.389              5.8462              66076.              38264.             0.25798E+049         29657.             0.22227     
         17.737              5.7789              65812.              38447.             0.26164E+049         30077.             0.22633     
         18.091              5.7499              66171.              38597.             0.26692E+049         30685.             0.22965     
         18.453              5.7416              66649.              38694.             0.27138E+049         31197.             0.23180     
         18.822              5.7554              67479.              38767.             0.27668E+049         31806.             0.23342     
         19.199              5.7782              68252.              38801.             0.28074E+049         32273.             0.23417     
         19.583              5.8156              69312.              38826.             0.28577E+049         32851.             0.23472     
         19.974              5.8680              70747.              38850.             0.29239E+049         33612.             0.23528     
         20.374              5.9323              72505.              38877.             0.30040E+049         34534.             0.23587     
         20.781              5.9862              73714.              38862.             0.30500E+049         35062.             0.23556     
         21.197              6.0492              75509.              38892.             0.31325E+049         36011.             0.23618     
         21.621              6.1032              77342.              38953.             0.32249E+049         37072.             0.23738     
         22.053              6.1567              79212.              39015.             0.33179E+049         38142.             0.23846     
         22.494              6.2084              80952.              39064.             0.33819E+049         38877.             0.23784     
         22.944              6.2581              82537.              39098.             0.34419E+049         39567.             0.23741     
         23.403              6.3056              83933.              39114.             0.34971E+049         40202.             0.23720     
         23.871              6.3619              85309.              39099.             0.35573E+049         40893.             0.23739     
         24.349              6.4275              86605.              39046.             0.36216E+049         41633.             0.23807     
         24.836              6.4777              87252.              38967.             0.36424E+049         41872.             0.23766     
         25.332              6.5356              86993.              38765.             0.35661E+049         40995.             0.23337     
         25.839              6.5924              82520.              38091.             0.31674E+049         36412.             0.21852     
